#== Filter Data - Lambda 9 Spectrophotometer ==
#  Kitt Peak National Observatory - NOAO
#------------------------------------------------
#Filter: .2NM/15NMPERMIN/1S  3500-6500A 22.0C
#Date: 08/09/05   Time: 16:39:44  Operator: hs
#cwl=  4362.11A  fwhm= 1065.78A  Tmax= 74.16% at  4336.00A
#Tcutoff=  2.00 %  Slitsize =  2 A
#fwhm spans 3829.22A to 4895.00A
#90%  spans 4115.95A to 4618.90A
#bw90 is  0.472; Tmin90/Tmax is  0.897
#No data smoothing
#
#Npts= 1501     Disp=  2.00A/Interval
#*****
  3500.00     0.090
  3502.00     0.120
  3504.00     0.100
  3506.00     0.065
  3508.00     0.085
  3510.00     0.125
  3512.00     0.120
  3514.00     0.065
  3516.00     0.090
  3518.00     0.150
  3520.00     0.140
  3522.00     0.070
  3524.00     0.170
  3526.00     0.200
  3528.00     0.130
  3530.00     0.085
  3532.00     0.260
  3534.00     0.290
  3536.00     0.255
  3538.00     0.270
  3540.00     0.350
  3542.00     0.300
  3544.00     0.320
  3546.00     0.395
  3548.00     0.430
  3550.00     0.330
  3552.00     0.410
  3554.00     0.415
  3556.00     0.395
  3558.00     0.495
  3560.00     0.450
  3562.00     0.580
  3564.00     0.650
  3566.00     0.605
  3568.00     0.660
  3570.00     0.765
  3572.00     0.745
  3574.00     0.840
  3576.00     0.880
  3578.00     1.030
  3580.00     1.055
  3582.00     1.085
  3584.00     1.125
  3586.00     1.470
  3588.00     1.290
  3590.00     1.380
  3592.00     1.410
  3594.00     1.650
  3596.00     1.580
  3598.00     1.600
  3600.00     1.800
  3602.00     1.910
  3604.00     1.870
  3606.00     1.935
  3608.00     2.110
  3610.00     2.325
  3612.00     2.610
  3614.00     2.485
  3616.00     2.460
  3618.00     3.080
  3620.00     2.790
  3622.00     3.025
  3624.00     3.155
  3626.00     3.305
  3628.00     3.400
  3630.00     3.440
  3632.00     3.760
  3634.00     3.850
  3636.00     4.035
  3638.00     4.195
  3640.00     4.280
  3642.00     4.115
  3644.00     4.545
  3646.00     4.515
  3648.00     4.920
  3650.00     5.185
  3652.00     5.460
  3654.00     5.445
  3656.00     5.645
  3658.00     6.065
  3660.00     5.890
  3662.00     6.000
  3664.00     6.250
  3666.00     6.860
  3668.00     7.055
  3670.00     7.305
  3672.00     7.305
  3674.00     7.240
  3676.00     7.560
  3678.00     7.900
  3680.00     8.560
  3682.00     8.425
  3684.00     8.955
  3686.00     9.110
  3688.00     8.860
  3690.00     9.620
  3692.00    10.105
  3694.00    10.570
  3696.00    10.355
  3698.00    10.920
  3700.00    10.950
  3702.00    11.580
  3704.00    11.420
  3706.00    11.175
  3708.00    11.500
  3710.00    12.330
  3712.00    12.980
  3714.00    13.185
  3716.00    12.830
  3718.00    12.975
  3720.00    13.515
  3722.00    14.100
  3724.00    14.075
  3726.00    14.680
  3728.00    14.655
  3730.00    14.685
  3732.00    16.350
  3734.00    15.290
  3736.00    16.575
  3738.00    16.005
  3740.00    16.865
  3742.00    16.770
  3744.00    17.570
  3746.00    16.525
  3748.00    17.115
  3750.00    18.005
  3752.00    17.360
  3754.00    17.885
  3756.00    18.315
  3758.00    18.430
  3760.00    19.465
  3762.00    19.640
  3764.00    19.670
  3766.00    20.040
  3768.00    20.750
  3770.00    20.165
  3772.00    21.945
  3774.00    22.905
  3776.00    21.940
  3778.00    22.855
  3780.00    22.125
  3782.00    23.330
  3784.00    23.180
  3786.00    23.460
  3788.00    23.050
  3790.00    24.105
  3792.00    30.835
  3794.00    30.775
  3796.00    31.695
  3798.00    32.010
  3800.00    31.925
  3802.00    32.380
  3804.00    32.575
  3806.00    33.735
  3808.00    33.385
  3810.00    34.035
  3812.00    34.685
  3814.00    34.245
  3816.00    35.440
  3818.00    34.905
  3820.00    35.855
  3822.00    36.170
  3824.00    36.230
  3826.00    36.880
  3828.00    36.750
  3830.00    37.285
  3832.00    37.180
  3834.00    38.220
  3836.00    39.250
  3838.00    38.605
  3840.00    39.225
  3842.00    39.150
  3844.00    39.475
  3846.00    40.370
  3848.00    40.270
  3850.00    40.260
  3852.00    40.930
  3854.00    41.550
  3856.00    41.525
  3858.00    41.870
  3860.00    42.150
  3862.00    42.185
  3864.00    42.565
  3866.00    42.545
  3868.00    42.930
  3870.00    43.755
  3872.00    43.415
  3874.00    44.570
  3876.00    45.965
  3878.00    44.045
  3880.00    45.195
  3882.00    44.485
  3884.00    45.040
  3886.00    45.935
  3888.00    46.680
  3890.00    45.735
  3892.00    46.065
  3894.00    47.160
  3896.00    47.430
  3898.00    47.585
  3900.00    47.535
  3902.00    49.415
  3904.00    48.630
  3906.00    47.700
  3908.00    48.225
  3910.00    49.665
  3912.00    49.195
  3914.00    50.850
  3916.00    50.160
  3918.00    50.960
  3920.00    48.890
  3922.00    50.945
  3924.00    50.050
  3926.00    50.635
  3928.00    51.500
  3930.00    52.365
  3932.00    51.745
  3934.00    52.340
  3936.00    53.185
  3938.00    52.960
  3940.00    52.620
  3942.00    52.785
  3944.00    53.545
  3946.00    52.760
  3948.00    53.665
  3950.00    53.600
  3952.00    54.390
  3954.00    54.980
  3956.00    53.750
  3958.00    54.220
  3960.00    54.055
  3962.00    54.695
  3964.00    55.105
  3966.00    54.445
  3968.00    55.765
  3970.00    56.015
  3972.00    56.535
  3974.00    56.180
  3976.00    55.915
  3978.00    57.030
  3980.00    56.595
  3982.00    56.915
  3984.00    58.305
  3986.00    57.905
  3988.00    57.005
  3990.00    58.615
  3992.00    57.985
  3994.00    58.385
  3996.00    60.470
  3998.00    59.150
  4000.00    59.125
  4002.00    59.145
  4004.00    59.575
  4006.00    60.125
  4008.00    60.205
  4010.00    60.550
  4012.00    60.170
  4014.00    59.345
  4016.00    60.295
  4018.00    60.785
  4020.00    61.310
  4022.00    61.120
  4024.00    61.525
  4026.00    61.540
  4028.00    61.120
  4030.00    61.365
  4032.00    61.820
  4034.00    61.905
  4036.00    62.135
  4038.00    62.360
  4040.00    61.915
  4042.00    62.950
  4044.00    61.870
  4046.00    61.790
  4048.00    63.550
  4050.00    62.910
  4052.00    63.570
  4054.00    63.590
  4056.00    63.385
  4058.00    63.650
  4060.00    63.970
  4062.00    63.630
  4064.00    64.605
  4066.00    64.500
  4068.00    64.265
  4070.00    65.340
  4072.00    64.655
  4074.00    63.380
  4076.00    64.080
  4078.00    65.125
  4080.00    65.380
  4082.00    65.505
  4084.00    64.505
  4086.00    65.680
  4088.00    64.900
  4090.00    66.480
  4092.00    66.130
  4094.00    64.675
  4096.00    66.135
  4098.00    65.555
  4100.00    66.565
  4102.00    66.005
  4104.00    66.330
  4106.00    65.635
  4108.00    65.685
  4110.00    66.540
  4112.00    65.975
  4114.00    66.720
  4116.00    66.740
  4118.00    66.955
  4120.00    67.070
  4122.00    67.995
  4124.00    67.560
  4126.00    66.640
  4128.00    66.540
  4130.00    68.300
  4132.00    66.595
  4134.00    67.350
  4136.00    67.880
  4138.00    67.640
  4140.00    67.425
  4142.00    67.160
  4144.00    67.015
  4146.00    68.215
  4148.00    69.025
  4150.00    68.425
  4152.00    68.530
  4154.00    69.665
  4156.00    67.435
  4158.00    68.875
  4160.00    68.555
  4162.00    68.955
  4164.00    68.560
  4166.00    68.965
  4168.00    68.000
  4170.00    69.135
  4172.00    68.965
  4174.00    68.140
  4176.00    69.475
  4178.00    69.295
  4180.00    68.570
  4182.00    69.885
  4184.00    68.765
  4186.00    69.665
  4188.00    68.270
  4190.00    69.170
  4192.00    69.675
  4194.00    69.550
  4196.00    69.280
  4198.00    70.410
  4200.00    70.885
  4202.00    69.655
  4204.00    70.480
  4206.00    70.825
  4208.00    69.965
  4210.00    70.030
  4212.00    70.335
  4214.00    70.755
  4216.00    69.825
  4218.00    70.390
  4220.00    70.665
  4222.00    70.430
  4224.00    69.150
  4226.00    69.975
  4228.00    70.405
  4230.00    70.395
  4232.00    70.920
  4234.00    71.040
  4236.00    71.540
  4238.00    71.245
  4240.00    70.725
  4242.00    70.455
  4244.00    70.745
  4246.00    71.340
  4248.00    71.400
  4250.00    71.685
  4252.00    72.200
  4254.00    71.200
  4256.00    71.400
  4258.00    72.270
  4260.00    72.650
  4262.00    71.940
  4264.00    72.450
  4266.00    71.520
  4268.00    71.770
  4270.00    72.330
  4272.00    72.375
  4274.00    71.095
  4276.00    71.195
  4278.00    72.715
  4280.00    72.200
  4282.00    71.985
  4284.00    72.290
  4286.00    72.965
  4288.00    71.645
  4290.00    72.550
  4292.00    72.445
  4294.00    72.195
  4296.00    72.695
  4298.00    72.530
  4300.00    72.325
  4302.00    72.230
  4304.00    72.210
  4306.00    72.435
  4308.00    72.915
  4310.00    72.460
  4312.00    72.530
  4314.00    72.615
  4316.00    73.060
  4318.00    72.290
  4320.00    72.110
  4322.00    72.940
  4324.00    73.625
  4326.00    72.415
  4328.00    72.585
  4330.00    73.190
  4332.00    73.045
  4334.00    72.420
  4336.00    74.155
  4338.00    72.105
  4340.00    72.690
  4342.00    72.780
  4344.00    72.520
  4346.00    72.285
  4348.00    73.255
  4350.00    72.670
  4352.00    73.540
  4354.00    72.825
  4356.00    73.295
  4358.00    73.795
  4360.00    72.995
  4362.00    73.330
  4364.00    73.030
  4366.00    72.505
  4368.00    72.755
  4370.00    72.835
  4372.00    73.825
  4374.00    72.925
  4376.00    73.485
  4378.00    72.475
  4380.00    72.900
  4382.00    72.255
  4384.00    72.950
  4386.00    71.360
  4388.00    73.135
  4390.00    73.180
  4392.00    72.975
  4394.00    73.000
  4396.00    72.595
  4398.00    72.090
  4400.00    73.035
  4402.00    72.800
  4404.00    73.275
  4406.00    72.035
  4408.00    73.260
  4410.00    73.390
  4412.00    73.435
  4414.00    73.125
  4416.00    73.100
  4418.00    73.235
  4420.00    72.730
  4422.00    73.065
  4424.00    72.800
  4426.00    72.650
  4428.00    72.345
  4430.00    72.510
  4432.00    73.410
  4434.00    72.870
  4436.00    73.080
  4438.00    71.875
  4440.00    73.025
  4442.00    73.035
  4444.00    72.335
  4446.00    71.930
  4448.00    72.605
  4450.00    72.710
  4452.00    73.295
  4454.00    72.700
  4456.00    73.140
  4458.00    72.535
  4460.00    72.565
  4462.00    72.005
  4464.00    71.820
  4466.00    72.295
  4468.00    71.850
  4470.00    72.395
  4472.00    72.750
  4474.00    72.035
  4476.00    72.185
  4478.00    71.885
  4480.00    72.345
  4482.00    71.655
  4484.00    72.630
  4486.00    72.080
  4488.00    72.775
  4490.00    72.140
  4492.00    72.015
  4494.00    71.395
  4496.00    71.375
  4498.00    71.545
  4500.00    71.655
  4502.00    71.855
  4504.00    72.280
  4506.00    71.505
  4508.00    70.685
  4510.00    70.810
  4512.00    70.735
  4514.00    71.005
  4516.00    71.360
  4518.00    71.685
  4520.00    70.170
  4522.00    70.310
  4524.00    71.860
  4526.00    72.125
  4528.00    71.235
  4530.00    70.665
  4532.00    70.125
  4534.00    70.105
  4536.00    70.415
  4538.00    70.740
  4540.00    71.625
  4542.00    70.160
  4544.00    70.395
  4546.00    69.890
  4548.00    70.395
  4550.00    70.165
  4552.00    70.055
  4554.00    69.410
  4556.00    69.725
  4558.00    69.775
  4560.00    69.425
  4562.00    68.895
  4564.00    69.700
  4566.00    69.485
  4568.00    69.175
  4570.00    69.730
  4572.00    69.330
  4574.00    69.140
  4576.00    69.080
  4578.00    69.265
  4580.00    68.765
  4582.00    69.010
  4584.00    69.240
  4586.00    68.905
  4588.00    68.530
  4590.00    68.065
  4592.00    68.235
  4594.00    67.950
  4596.00    68.450
  4598.00    68.375
  4600.00    67.585
  4602.00    67.560
  4604.00    67.765
  4606.00    67.380
  4608.00    67.955
  4610.00    67.650
  4612.00    67.820
  4614.00    67.305
  4616.00    66.935
  4618.00    66.920
  4620.00    66.520
  4622.00    66.550
  4624.00    66.390
  4626.00    66.430
  4628.00    66.620
  4630.00    66.150
  4632.00    65.970
  4634.00    65.780
  4636.00    65.870
  4638.00    66.065
  4640.00    65.865
  4642.00    65.455
  4644.00    65.165
  4646.00    64.600
  4648.00    65.890
  4650.00    65.205
  4652.00    64.960
  4654.00    64.735
  4656.00    64.570
  4658.00    64.385
  4660.00    64.215
  4662.00    64.115
  4664.00    63.910
  4666.00    64.160
  4668.00    63.240
  4670.00    63.510
  4672.00    63.300
  4674.00    63.080
  4676.00    62.885
  4678.00    62.660
  4680.00    63.155
  4682.00    62.825
  4684.00    62.360
  4686.00    62.045
  4688.00    61.915
  4690.00    61.230
  4692.00    61.445
  4694.00    61.365
  4696.00    61.005
  4698.00    60.955
  4700.00    60.715
  4702.00    60.815
  4704.00    60.280
  4706.00    60.295
  4708.00    59.670
  4710.00    59.560
  4712.00    59.395
  4714.00    59.195
  4716.00    59.315
  4718.00    59.495
  4720.00    58.595
  4722.00    58.565
  4724.00    58.035
  4726.00    58.050
  4728.00    57.980
  4730.00    57.975
  4732.00    57.605
  4734.00    57.315
  4736.00    56.540
  4738.00    56.675
  4740.00    56.795
  4742.00    56.370
  4744.00    55.915
  4746.00    56.060
  4748.00    55.705
  4750.00    55.640
  4752.00    55.265
  4754.00    54.980
  4756.00    54.605
  4758.00    54.725
  4760.00    54.305
  4762.00    54.205
  4764.00    54.050
  4766.00    53.685
  4768.00    53.435
  4770.00    52.875
  4772.00    52.710
  4774.00    52.790
  4776.00    52.340
  4778.00    52.120
  4780.00    51.930
  4782.00    51.340
  4784.00    51.290
  4786.00    51.320
  4788.00    50.920
  4790.00    51.080
  4792.00    50.435
  4794.00    50.110
  4796.00    50.125
  4798.00    49.355
  4800.00    49.485
  4802.00    49.190
  4804.00    48.990
  4806.00    48.665
  4808.00    48.330
  4810.00    48.190
  4812.00    47.640
  4814.00    47.690
  4816.00    46.845
  4818.00    46.955
  4820.00    46.390
  4822.00    46.650
  4824.00    46.315
  4826.00    46.100
  4828.00    45.790
  4830.00    45.565
  4832.00    45.315
  4834.00    44.855
  4836.00    44.580
  4838.00    44.580
  4840.00    44.275
  4842.00    43.805
  4844.00    43.305
  4846.00    43.495
  4848.00    43.280
  4850.00    42.890
  4852.00    42.525
  4854.00    42.070
  4856.00    41.890
  4858.00    41.815
  4860.00    41.155
  4862.00    41.185
  4864.00    41.050
  4866.00    40.625
  4868.00    40.345
  4870.00    40.220
  4872.00    39.730
  4874.00    39.495
  4876.00    39.350
  4878.00    39.135
  4880.00    39.030
  4882.00    38.390
  4884.00    38.330
  4886.00    37.995
  4888.00    37.840
  4890.00    37.460
  4892.00    37.340
  4894.00    37.175
  4896.00    36.980
  4898.00    36.795
  4900.00    36.530
  4902.00    36.315
  4904.00    35.975
  4906.00    35.945
  4908.00    35.510
  4910.00    35.255
  4912.00    35.405
  4914.00    35.155
  4916.00    35.220
  4918.00    35.095
  4920.00    35.240
  4922.00    40.140
  4924.00    39.860
  4926.00    39.795
  4928.00    39.565
  4930.00    39.210
  4932.00    38.780
  4934.00    38.310
  4936.00    37.855
  4938.00    37.380
  4940.00    36.965
  4942.00    36.535
  4944.00    36.120
  4946.00    35.695
  4948.00    35.260
  4950.00    34.815
  4952.00    34.395
  4954.00    33.990
  4956.00    33.595
  4958.00    33.190
  4960.00    32.790
  4962.00    32.390
  4964.00    32.000
  4966.00    31.625
  4968.00    31.245
  4970.00    30.860
  4972.00    30.480
  4974.00    30.115
  4976.00    29.725
  4978.00    29.355
  4980.00    28.985
  4982.00    28.605
  4984.00    28.220
  4986.00    27.820
  4988.00    27.425
  4990.00    27.035
  4992.00    26.640
  4994.00    26.260
  4996.00    25.875
  4998.00    25.500
  5000.00    25.135
  5002.00    24.770
  5004.00    24.400
  5006.00    24.040
  5008.00    23.690
  5010.00    23.335
  5012.00    22.985
  5014.00    22.620
  5016.00    22.260
  5018.00    21.910
  5020.00    21.550
  5022.00    21.195
  5024.00    20.845
  5026.00    20.495
  5028.00    20.145
  5030.00    19.795
  5032.00    19.450
  5034.00    19.100
  5036.00    18.745
  5038.00    18.390
  5040.00    18.040
  5042.00    17.680
  5044.00    17.330
  5046.00    16.975
  5048.00    16.620
  5050.00    16.270
  5052.00    15.930
  5054.00    15.590
  5056.00    15.255
  5058.00    14.950
  5060.00    14.675
  5062.00    14.405
  5064.00    14.140
  5066.00    13.885
  5068.00    13.640
  5070.00    13.395
  5072.00    13.150
  5074.00    12.915
  5076.00    12.685
  5078.00    12.455
  5080.00    12.230
  5082.00    12.020
  5084.00    11.800
  5086.00    11.595
  5088.00    11.395
  5090.00    11.190
  5092.00    10.995
  5094.00    10.815
  5096.00    10.635
  5098.00    10.465
  5100.00    10.300
  5102.00    10.140
  5104.00     9.975
  5106.00     9.825
  5108.00     9.700
  5110.00     9.585
  5112.00     9.490
  5114.00     9.405
  5116.00     9.315
  5118.00     9.220
  5120.00     9.115
  5122.00     8.995
  5124.00     8.850
  5126.00     8.710
  5128.00     8.570
  5130.00     8.405
  5132.00     8.245
  5134.00     8.095
  5136.00     7.930
  5138.00     7.795
  5140.00     7.645
  5142.00     7.510
  5144.00     7.425
  5146.00     7.500
  5148.00     8.195
  5150.00     9.340
  5152.00     9.425
  5154.00     9.295
  5156.00     9.215
  5158.00     9.145
  5160.00     9.110
  5162.00     9.030
  5164.00     8.895
  5166.00     8.865
  5168.00     8.735
  5170.00     8.600
  5172.00     8.560
  5174.00     8.440
  5176.00     8.355
  5178.00     8.260
  5180.00     8.160
  5182.00     8.035
  5184.00     7.960
  5186.00     7.890
  5188.00     7.695
  5190.00     7.690
  5192.00     7.575
  5194.00     7.495
  5196.00     7.360
  5198.00     7.295
  5200.00     7.220
  5202.00     7.110
  5204.00     6.995
  5206.00     6.920
  5208.00     6.905
  5210.00     6.750
  5212.00     6.635
  5214.00     6.610
  5216.00     6.470
  5218.00     6.460
  5220.00     6.300
  5222.00     6.210
  5224.00     6.090
  5226.00     6.030
  5228.00     5.920
  5230.00     5.890
  5232.00     5.795
  5234.00     5.775
  5236.00     5.650
  5238.00     5.510
  5240.00     5.430
  5242.00     5.350
  5244.00     5.345
  5246.00     5.250
  5248.00     5.170
  5250.00     5.100
  5252.00     5.045
  5254.00     4.980
  5256.00     4.890
  5258.00     4.785
  5260.00     4.705
  5262.00     4.680
  5264.00     4.570
  5266.00     4.540
  5268.00     4.490
  5270.00     4.405
  5272.00     4.340
  5274.00     4.345
  5276.00     4.200
  5278.00     4.220
  5280.00     4.065
  5282.00     4.005
  5284.00     4.010
  5286.00     3.945
  5288.00     3.875
  5290.00     3.760
  5292.00     3.755
  5294.00     3.690
  5296.00     3.655
  5298.00     3.595
  5300.00     3.510
  5302.00     3.510
  5304.00     3.425
  5306.00     3.390
  5308.00     3.300
  5310.00     3.335
  5312.00     3.275
  5314.00     3.165
  5316.00     3.225
  5318.00     3.120
  5320.00     3.035
  5322.00     3.025
  5324.00     3.065
  5326.00     2.945
  5328.00     2.945
  5330.00     2.900
  5332.00     2.860
  5334.00     2.830
  5336.00     2.840
  5338.00     2.770
  5340.00     2.735
  5342.00     2.735
  5344.00     2.695
  5346.00     2.690
  5348.00     2.550
  5350.00     2.545
  5352.00     2.560
  5354.00     2.560
