#== Filter Data - Lambda 9 Spectrophotometer ==
# Kitt Peak National Observatory - NOAO
#------------------------------------------------
#Filter: .2NM/15NMPERMIN/1S  4500-7500A 23.3C
#Date: 08/09/05   Time: 16:39:30  Operator: hs
#cwl=  5382.51A  fwhm= 790.39A  Tmax= 87.69% at  5210.00A
#Tcutoff=  2.00 %  Slitsize =  2 A
#fwhm spans 4987.31A to 5777.70A
#90%  spans 5044.82A to 5453.38A
#bw90 is  0.517; Tmin90/Tmax is  0.900
#No data smoothing
#
#Npts= 1501     Disp=  2.00A/Interval
#*****
  4500.00     0.200
  4502.00     0.225
  4504.00     0.225
  4506.00     0.215
  4508.00     0.235
  4510.00     0.185
  4512.00     0.240
  4514.00     0.230
  4516.00     0.240
  4518.00     0.215
  4520.00     0.200
  4522.00     0.200
  4524.00     0.220
  4526.00     0.220
  4528.00     0.250
  4530.00     0.230
  4532.00     0.205
  4534.00     0.215
  4536.00     0.205
  4538.00     0.215
  4540.00     0.190
  4542.00     0.195
  4544.00     0.195
  4546.00     0.215
  4548.00     0.230
  4550.00     0.200
  4552.00     0.200
  4554.00     0.215
  4556.00     0.180
  4558.00     0.175
  4560.00     0.195
  4562.00     0.205
  4564.00     0.205
  4566.00     0.195
  4568.00     0.175
  4570.00     0.170
  4572.00     0.200
  4574.00     0.180
  4576.00     0.195
  4578.00     0.190
  4580.00     0.155
  4582.00     0.190
  4584.00     0.200
  4586.00     0.170
  4588.00     0.190
  4590.00     0.175
  4592.00     0.165
  4594.00     0.195
  4596.00     0.180
  4598.00     0.180
  4600.00     0.185
  4602.00     0.170
  4604.00     0.185
  4606.00     0.180
  4608.00     0.180
  4610.00     0.160
  4612.00     0.175
  4614.00     0.160
  4616.00     0.165
  4618.00     0.170
  4620.00     0.170
  4622.00     0.165
  4624.00     0.165
  4626.00     0.155
  4628.00     0.160
  4630.00     0.170
  4632.00     0.175
  4634.00     0.160
  4636.00     0.165
  4638.00     0.170
  4640.00     0.170
  4642.00     0.160
  4644.00     0.150
  4646.00     0.160
  4648.00     0.145
  4650.00     0.140
  4652.00     0.155
  4654.00     0.145
  4656.00     0.155
  4658.00     0.165
  4660.00     0.160
  4662.00     0.150
  4664.00     0.150
  4666.00     0.160
  4668.00     0.155
  4670.00     0.165
  4672.00     0.155
  4674.00     0.165
  4676.00     0.150
  4678.00     0.165
  4680.00     0.165
  4682.00     0.175
  4684.00     0.155
  4686.00     0.155
  4688.00     0.185
  4690.00     0.170
  4692.00     0.170
  4694.00     0.175
  4696.00     0.180
  4698.00     0.170
  4700.00     0.180
  4702.00     0.185
  4704.00     0.175
  4706.00     0.200
  4708.00     0.185
  4710.00     0.175
  4712.00     0.190
  4714.00     0.200
  4716.00     0.200
  4718.00     0.210
  4720.00     0.190
  4722.00     0.210
  4724.00     0.225
  4726.00     0.225
  4728.00     0.225
  4730.00     0.250
  4732.00     0.240
  4734.00     0.255
  4736.00     0.255
  4738.00     0.295
  4740.00     0.295
  4742.00     0.285
  4744.00     0.325
  4746.00     0.325
  4748.00     0.335
  4750.00     0.355
  4752.00     0.390
  4754.00     0.390
  4756.00     0.435
  4758.00     0.455
  4760.00     0.490
  4762.00     0.500
  4764.00     0.535
  4766.00     0.550
  4768.00     0.590
  4770.00     0.640
  4772.00     0.645
  4774.00     0.675
  4776.00     0.790
  4778.00     0.795
  4780.00     0.820
  4782.00     0.895
  4784.00     0.950
  4786.00     1.000
  4788.00     1.095
  4790.00     1.145
  4792.00     1.180
  4794.00     1.280
  4796.00     1.340
  4798.00     1.445
  4800.00     1.540
  4802.00     1.630
  4804.00     1.700
  4806.00     1.815
  4808.00     1.980
  4810.00     2.075
  4812.00     2.200
  4814.00     2.365
  4816.00     2.475
  4818.00     2.595
  4820.00     2.825
  4822.00     2.910
  4824.00     3.075
  4826.00     3.300
  4828.00     3.450
  4830.00     3.680
  4832.00     3.845
  4834.00     4.060
  4836.00     4.320
  4838.00     4.520
  4840.00     4.690
  4842.00     5.000
  4844.00     5.285
  4846.00     5.540
  4848.00     5.780
  4850.00     6.120
  4852.00     6.430
  4854.00     6.775
  4856.00     7.055
  4858.00     7.300
  4860.00     7.745
  4862.00     8.045
  4864.00     8.455
  4866.00     8.870
  4868.00     9.140
  4870.00     9.605
  4872.00    10.050
  4874.00    10.535
  4876.00    10.890
  4878.00    11.270
  4880.00    11.685
  4882.00    12.150
  4884.00    12.610
  4886.00    13.085
  4888.00    13.505
  4890.00    14.100
  4892.00    14.550
  4894.00    14.985
  4896.00    15.360
  4898.00    15.995
  4900.00    16.435
  4902.00    16.855
  4904.00    17.320
  4906.00    17.705
  4908.00    18.010
  4910.00    18.440
  4912.00    18.780
  4914.00    19.105
  4916.00    19.365
  4918.00    19.430
  4920.00    19.290
  4922.00    12.415
  4924.00     6.310
  4926.00     6.365
  4928.00     6.805
  4930.00     7.390
  4932.00     8.040
  4934.00     8.765
  4936.00     9.565
  4938.00    10.415
  4940.00    11.325
  4942.00    12.295
  4944.00    13.295
  4946.00    14.340
  4948.00    15.440
  4950.00    16.580
  4952.00    17.765
  4954.00    18.990
  4956.00    20.250
  4958.00    21.540
  4960.00    22.860
  4962.00    24.220
  4964.00    25.640
  4966.00    27.075
  4968.00    28.520
  4970.00    29.995
  4972.00    31.470
  4974.00    32.970
  4976.00    34.515
  4978.00    36.085
  4980.00    37.685
  4982.00    39.290
  4984.00    40.945
  4986.00    42.690
  4988.00    44.455
  4990.00    46.205
  4992.00    48.020
  4994.00    49.735
  4996.00    51.450
  4998.00    53.125
  5000.00    54.725
  5002.00    56.300
  5004.00    57.900
  5006.00    59.400
  5008.00    60.835
  5010.00    62.215
  5012.00    63.575
  5014.00    64.915
  5016.00    66.170
  5018.00    67.380
  5020.00    68.545
  5022.00    69.640
  5024.00    70.665
  5026.00    71.675
  5028.00    72.620
  5030.00    73.520
  5032.00    74.360
  5034.00    75.170
  5036.00    75.940
  5038.00    76.670
  5040.00    77.360
  5042.00    78.045
  5044.00    78.675
  5046.00    79.285
  5048.00    79.850
  5050.00    80.380
  5052.00    80.880
  5054.00    81.365
  5056.00    81.810
  5058.00    82.230
  5060.00    82.580
  5062.00    82.915
  5064.00    83.235
  5066.00    83.500
  5068.00    83.775
  5070.00    84.020
  5072.00    84.255
  5074.00    84.460
  5076.00    84.670
  5078.00    84.840
  5080.00    85.055
  5082.00    85.255
  5084.00    85.440
  5086.00    85.600
  5088.00    85.745
  5090.00    85.840
  5092.00    86.000
  5094.00    86.105
  5096.00    86.205
  5098.00    86.355
  5100.00    86.460
  5102.00    86.530
  5104.00    86.565
  5106.00    86.650
  5108.00    86.750
  5110.00    86.855
  5112.00    86.980
  5114.00    86.985
  5116.00    86.845
  5118.00    86.775
  5120.00    86.850
  5122.00    86.975
  5124.00    87.040
  5126.00    87.130
  5128.00    87.145
  5130.00    87.155
  5132.00    87.120
  5134.00    87.200
  5136.00    87.295
  5138.00    87.365
  5140.00    87.485
  5142.00    87.375
  5144.00    87.275
  5146.00    87.135
  5148.00    86.715
  5150.00    86.725
  5152.00    86.160
  5154.00    86.405
  5156.00    86.565
  5158.00    86.485
  5160.00    86.700
  5162.00    86.725
  5164.00    86.660
  5166.00    86.910
  5168.00    87.040
  5170.00    86.935
  5172.00    87.060
  5174.00    86.995
  5176.00    86.880
  5178.00    86.895
  5180.00    86.950
  5182.00    86.550
  5184.00    87.125
  5186.00    86.855
  5188.00    87.000
  5190.00    86.990
  5192.00    86.490
  5194.00    87.245
  5196.00    87.215
  5198.00    87.395
  5200.00    87.565
  5202.00    87.045
  5204.00    86.885
  5206.00    87.120
  5208.00    86.990
  5210.00    87.695
  5212.00    87.320
  5214.00    87.375
  5216.00    87.005
  5218.00    87.265
  5220.00    86.400
  5222.00    86.930
  5224.00    87.105
  5226.00    86.815
  5228.00    87.120
  5230.00    87.180
  5232.00    87.185
  5234.00    87.310
  5236.00    87.180
  5238.00    87.110
  5240.00    87.295
  5242.00    86.890
  5244.00    87.240
  5246.00    87.140
  5248.00    87.110
  5250.00    86.710
  5252.00    86.860
  5254.00    87.075
  5256.00    86.530
  5258.00    86.990
  5260.00    86.855
  5262.00    86.825
  5264.00    86.450
  5266.00    86.495
  5268.00    86.210
  5270.00    86.885
  5272.00    86.485
  5274.00    86.775
  5276.00    86.525
  5278.00    86.520
  5280.00    86.700
  5282.00    86.515
  5284.00    86.895
  5286.00    85.960
  5288.00    86.595
  5290.00    86.115
  5292.00    86.325
  5294.00    86.450
  5296.00    86.440
  5298.00    86.065
  5300.00    86.295
  5302.00    85.740
  5304.00    86.265
  5306.00    86.075
  5308.00    86.430
  5310.00    86.200
  5312.00    85.270
  5314.00    85.700
  5316.00    85.610
  5318.00    85.475
  5320.00    85.130
  5322.00    85.545
  5324.00    85.870
  5326.00    85.780
  5328.00    85.375
  5330.00    84.750
  5332.00    84.785
  5334.00    85.200
  5336.00    84.915
  5338.00    84.755
  5340.00    84.135
  5342.00    85.100
  5344.00    84.645
  5346.00    84.735
  5348.00    84.740
  5350.00    85.125
  5352.00    84.855
  5354.00    84.010
  5356.00    84.090
  5358.00    84.075
  5360.00    84.530
  5362.00    84.045
  5364.00    83.725
  5366.00    83.540
  5368.00    83.705
  5370.00    83.685
  5372.00    83.385
  5374.00    83.680
  5376.00    83.240
  5378.00    83.150
  5380.00    82.820
  5382.00    82.935
  5384.00    82.490
  5386.00    83.020
  5388.00    82.925
  5390.00    83.040
  5392.00    82.130
  5394.00    82.170
  5396.00    82.095
  5398.00    82.865
  5400.00    82.360
  5402.00    82.395
  5404.00    82.185
  5406.00    82.155
  5408.00    81.940
  5410.00    82.155
  5412.00    81.475
  5414.00    81.340
  5416.00    81.550
  5418.00    81.390
  5420.00    81.485
  5422.00    81.050
  5424.00    80.325
  5426.00    81.295
  5428.00    80.620
  5430.00    80.905
  5432.00    80.010
  5434.00    80.230
  5436.00    80.315
  5438.00    79.980
  5440.00    79.980
  5442.00    79.800
  5444.00    79.535
  5446.00    79.660
  5448.00    79.390
  5450.00    79.315
  5452.00    79.150
  5454.00    78.825
  5456.00    78.905
  5458.00    78.880
  5460.00    78.245
  5462.00    78.495
  5464.00    78.150
  5466.00    78.505
  5468.00    77.080
  5470.00    77.360
  5472.00    77.975
  5474.00    77.130
  5476.00    77.375
  5478.00    77.720
  5480.00    77.175
  5482.00    76.835
  5484.00    76.380
  5486.00    76.615
  5488.00    76.735
  5490.00    76.175
  5492.00    76.980
  5494.00    75.720
  5496.00    76.095
  5498.00    75.545
  5500.00    75.160
  5502.00    74.990
  5504.00    75.365
  5506.00    74.870
  5508.00    75.110
  5510.00    74.830
  5512.00    74.370
  5514.00    74.485
  5516.00    73.905
  5518.00    73.600
  5520.00    73.390
  5522.00    73.245
  5524.00    73.955
  5526.00    73.700
  5528.00    73.240
  5530.00    73.455
  5532.00    73.420
  5534.00    73.565
  5536.00    72.740
  5538.00    72.665
  5540.00    71.885
  5542.00    70.940
  5544.00    71.575
  5546.00    71.605
  5548.00    70.965
  5550.00    71.575
  5552.00    71.140
  5554.00    70.770
  5556.00    70.285
  5558.00    69.940
  5560.00    70.515
  5562.00    70.190
  5564.00    69.830
  5566.00    69.685
  5568.00    68.765
  5570.00    68.735
  5572.00    69.285
  5574.00    69.040
  5576.00    68.500
  5578.00    68.125
  5580.00    67.805
  5582.00    68.235
  5584.00    67.855
  5586.00    67.770
  5588.00    67.475
  5590.00    67.750
  5592.00    67.490
  5594.00    66.805
  5596.00    66.685
  5598.00    66.630
  5600.00    65.935
  5602.00    65.600
  5604.00    65.165
  5606.00    65.155
  5608.00    65.235
  5610.00    65.075
  5612.00    65.150
  5614.00    64.900
  5616.00    64.550
  5618.00    63.720
  5620.00    63.985
  5622.00    63.465
  5624.00    63.045
  5626.00    62.175
  5628.00    62.115
  5630.00    61.630
  5632.00    61.795
  5634.00    61.990
  5636.00    61.350
  5638.00    61.200
  5640.00    61.105
  5642.00    60.795
  5644.00    60.290
  5646.00    59.600
  5648.00    60.605
  5650.00    60.670
  5652.00    59.435
  5654.00    59.015
  5656.00    59.235
  5658.00    58.760
  5660.00    58.205
  5662.00    58.400
  5664.00    58.185
  5666.00    58.505
  5668.00    58.180
  5670.00    57.195
  5672.00    57.490
  5674.00    57.225
  5676.00    56.910
  5678.00    57.140
  5680.00    56.715
  5682.00    56.310
  5684.00    56.370
  5686.00    55.700
  5688.00    55.960
  5690.00    55.015
  5692.00    55.280
  5694.00    54.735
  5696.00    54.100
  5698.00    54.215
  5700.00    54.450
  5702.00    53.920
  5704.00    53.250
  5706.00    53.320
  5708.00    53.190
  5710.00    52.655
  5712.00    52.870
  5714.00    51.680
  5716.00    51.660
  5718.00    51.785
  5720.00    51.630
  5722.00    51.575
  5724.00    51.910
  5726.00    51.225
  5728.00    50.470
  5730.00    50.415
  5732.00    50.250
  5734.00    49.925
  5736.00    49.690
  5738.00    49.400
  5740.00    49.335
  5742.00    49.205
  5744.00    48.720
  5746.00    48.305
  5748.00    48.030
  5750.00    47.600
  5752.00    47.685
  5754.00    47.500
  5756.00    47.515
  5758.00    46.985
  5760.00    46.625
  5762.00    46.800
  5764.00    46.670
  5766.00    46.110
  5768.00    45.585
  5770.00    44.920
  5772.00    44.945
  5774.00    44.540
  5776.00    44.805
  5778.00    43.680
  5780.00    43.740
  5782.00    43.545
  5784.00    43.900
  5786.00    42.860
  5788.00    43.055
  5790.00    42.240
  5792.00    42.835
  5794.00    42.080
  5796.00    41.620
  5798.00    41.790
  5800.00    41.435
  5802.00    41.210
  5804.00    41.300
  5806.00    40.670
  5808.00    40.620
  5810.00    39.880
  5812.00    39.485
  5814.00    39.190
  5816.00    38.790
  5818.00    39.190
  5820.00    38.855
  5822.00    38.295
  5824.00    38.515
  5826.00    38.335
  5828.00    37.780
  5830.00    37.790
  5832.00    37.120
  5834.00    37.550
  5836.00    36.935
  5838.00    36.855
  5840.00    36.585
  5842.00    35.615
  5844.00    35.955
  5846.00    35.645
  5848.00    35.395
  5850.00    34.950
  5852.00    35.230
  5854.00    34.425
  5856.00    34.490
  5858.00    34.235
  5860.00    33.970
  5862.00    33.540
  5864.00    33.380
  5866.00    32.805
  5868.00    33.115
  5870.00    33.100
  5872.00    32.395
  5874.00    32.130
  5876.00    31.690
  5878.00    31.795
  5880.00    31.650
  5882.00    31.035
  5884.00    31.080
  5886.00    30.915
  5888.00    30.320
  5890.00    29.990
  5892.00    30.250
  5894.00    29.600
  5896.00    29.665
  5898.00    29.355
  5900.00    28.930
  5902.00    28.550
  5904.00    28.555
  5906.00    28.110
  5908.00    27.665
  5910.00    28.020
  5912.00    27.580
  5914.00    27.855
  5916.00    27.340
  5918.00    27.025
  5920.00    26.730
  5922.00    26.220
  5924.00    25.780
  5926.00    25.545
  5928.00    25.760
  5930.00    25.420
  5932.00    24.900
  5934.00    25.165
  5936.00    24.880
  5938.00    24.355
  5940.00    24.265
  5942.00    24.385
  5944.00    23.705
  5946.00    24.215
  5948.00    23.435
  5950.00    23.165
  5952.00    23.200
  5954.00    23.075
  5956.00    22.660
  5958.00    22.595
  5960.00    22.595
  5962.00    21.775
  5964.00    21.930
  5966.00    21.775
  5968.00    21.310
  5970.00    21.430
  5972.00    21.270
  5974.00    21.060
  5976.00    20.730
  5978.00    20.280
  5980.00    20.140
  5982.00    19.845
  5984.00    19.770
  5986.00    20.015
  5988.00    19.265
  5990.00    19.075
  5992.00    19.280
  5994.00    18.885
  5996.00    18.690
  5998.00    18.895
  6000.00    18.275
  6002.00    18.190
  6004.00    18.045
  6006.00    17.810
  6008.00    17.505
  6010.00    17.690
  6012.00    17.210
  6014.00    17.030
  6016.00    16.800
  6018.00    16.535
  6020.00    16.430
  6022.00    16.625
  6024.00    16.215
  6026.00    15.890
  6028.00    15.740
  6030.00    15.980
  6032.00    15.350
  6034.00    15.240
  6036.00    15.350
  6038.00    14.770
  6040.00    15.005
  6042.00    14.720
  6044.00    14.380
  6046.00    14.215
  6048.00    14.295
  6050.00    14.015
  6052.00    13.860
  6054.00    13.785
  6056.00    13.590
  6058.00    12.920
  6060.00    13.375
  6062.00    13.245
  6064.00    12.870
  6066.00    12.990
  6068.00    12.860
  6070.00    12.560
  6072.00    12.555
  6074.00    12.520
  6076.00    12.285
  6078.00    11.855
  6080.00    11.585
  6082.00    11.365
  6084.00    11.690
  6086.00    11.625
  6088.00    11.055
  6090.00    10.975
  6092.00    11.105
  6094.00    10.540
  6096.00    10.845
  6098.00    10.550
  6100.00    10.350
  6102.00    10.280
  6104.00    10.210
  6106.00     9.880
  6108.00     9.775
  6110.00    10.025
  6112.00     9.850
  6114.00     9.700
  6116.00     9.405
  6118.00     9.380
  6120.00     8.965
  6122.00     9.100
  6124.00     8.890
  6126.00     8.980
  6128.00     8.700
  6130.00     8.640
  6132.00     8.730
  6134.00     8.475
  6136.00     8.210
  6138.00     8.030
  6140.00     8.280
  6142.00     8.075
  6144.00     8.080
  6146.00     7.555
  6148.00     7.775
  6150.00     7.520
  6152.00     7.380
  6154.00     7.295
  6156.00     7.185
  6158.00     7.305
  6160.00     7.085
  6162.00     6.900
  6164.00     6.920
  6166.00     6.670
  6168.00     6.715
  6170.00     6.485
  6172.00     6.530
  6174.00     6.500
  6176.00     6.170
  6178.00     6.330
  6180.00     5.990
  6182.00     5.875
  6184.00     5.905
  6186.00     5.895
  6188.00     5.820
  6190.00     5.740
  6192.00     5.535
  6194.00     5.540
  6196.00     5.515
  6198.00     5.575
  6200.00     5.430
  6202.00     5.300
  6204.00     5.050
  6206.00     4.950
  6208.00     4.930
  6210.00     4.985
  6212.00     5.030
  6214.00     4.910
  6216.00     4.630
  6218.00     4.685
  6220.00     4.445
  6222.00     4.405
  6224.00     4.365
  6226.00     4.390
  6228.00     4.160
  6230.00     4.275
  6232.00     4.150
  6234.00     4.005
  6236.00     4.070
  6238.00     3.910
  6240.00     3.835
  6242.00     3.705
  6244.00     3.750
  6246.00     3.650
  6248.00     3.735
  6250.00     3.595
  6252.00     3.585
  6254.00     3.345
  6256.00     3.450
  6258.00     3.350
  6260.00     3.220
  6262.00     3.130
  6264.00     3.145
  6266.00     3.185
  6268.00     3.140
  6270.00     2.935
  6272.00     2.995
  6274.00     2.780
  6276.00     2.925
  6278.00     2.790
  6280.00     2.755
  6282.00     2.800
  6284.00     2.725
  6286.00     2.715
  6288.00     2.575
  6290.00     2.590
  6292.00     2.595
  6294.00     2.460
  6296.00     2.405
  6298.00     2.290
  6300.00     2.390
  6302.00     2.285
  6304.00     2.325
  6306.00     2.240
  6308.00     2.270
  6310.00     2.200
  6312.00     2.085
  6314.00     2.145
  6316.00     2.015
  6318.00     1.995
  6320.00     2.005
  6322.00     1.900
  6324.00     1.915
  6326.00     1.845
  6328.00     1.880
  6330.00     1.735
  6332.00     1.715
  6334.00     1.670
  6336.00     1.710
  6338.00     1.770
  6340.00     1.600
  6342.00     1.640
  6344.00     1.660
  6346.00     1.590
  6348.00     1.615
  6350.00     1.570
  6352.00     1.460
  6354.00     1.460
